#!/bin/sh
#
# This script will plot ray paths using GMT. If you want to
#use this as a data file for psxy in another script, delete these
# first lines, to the last psxy, as well as the last line.
#
# draw surface and label distances.
PS=GMT_JP_polar.ps
gmt psbasemap -K -P -R0/360/0/6371.0 -JP6.0i -Bx30p -By500 -BN > $PS
# draw circles for branches, note these are scaled for a
# map using -JP6.0i
gmt psxy -K -O -P -R -JP -Sc -A >> $PS <<ENDLAYERS
0.0 0.0 6.0i
0.0 0.0 6.0i
0.0 0.0 5.9858737i
0.0 0.0 5.9770207i
0.0 0.0 5.7928114i
0.0 0.0 5.623293i
0.0 0.0 5.3690157i
0.0 0.0 3.2773504i
0.0 0.0 1.1503688i
ENDLAYERS

# draw paths
gmt psxy -P -R -K -O -JP -A >> $PS <<END
> Pdiff at  1010.95 seconds at   150.00 degrees for a    300.0 km deep source in the prem model with rayParam    4.428 s/deg.
    0.00    6071.0
    0.04    6061.0
    0.04    6060.1
    0.04    6059.2
    0.12    6037.7
    0.21    6016.0
    0.26    6001.4
    0.33    5984.5
    0.38    5971.0
    0.42    5962.3
    0.45    5953.5
    0.53    5935.6
    0.54    5932.7
    0.56    5926.9
    0.59    5921.0
    0.65    5906.2
    0.72    5891.1
    0.81    5871.0
    0.85    5861.7
    0.88    5855.1
    0.91    5848.3
    0.97    5834.8
    1.04    5821.0
    1.04    5820.4
    1.08    5812.3
    1.12    5804.2
    1.19    5787.7
    1.28    5771.0
    1.31    5764.6
    1.34    5758.2
    1.41    5745.3
    1.43    5740.7
    1.45    5736.0
    1.54    5718.5
    1.63    5701.0
    1.65    5697.6
    1.67    5694.2
    1.73    5683.3
    1.79    5672.2
    1.92    5650.0
    2.07    5623.1
    2.21    5600.0
    2.32    5581.1
    2.43    5562.1
    2.51    5550.0
    2.54    5544.0
    2.58    5537.9
    2.70    5519.0
    2.76    5509.5
    2.82    5500.0
    2.96    5477.4
    3.11    5454.7
    3.15    5447.9
    3.22    5437.6
    3.23    5436.5
    3.24    5435.3
    3.25    5433.0
    3.28    5428.3
    3.31    5423.6
    3.35    5418.9
    3.38    5414.2
    3.41    5409.5
    3.47    5400.0
    3.56    5387.1
    3.65    5374.1
    3.74    5361.1
    3.83    5348.1
    3.91    5336.1
    4.00    5324.1
    4.17    5300.0
    4.38    5270.3
    4.61    5240.3
    4.76    5220.2
    4.91    5200.0
    5.09    5176.9
    5.33    5146.9
    5.57    5116.6
    5.59    5115.0
    5.60    5113.5
    5.62    5110.3
    5.67    5104.1
    5.71    5100.0
    5.78    5091.5
    5.99    5066.1
    6.31    5028.8
    6.56    5000.0
    6.64    4991.1
    7.00    4950.6
    7.19    4930.1
    7.38    4909.6
    7.48    4900.0
    7.74    4872.3
    7.92    4853.4
    8.11    4834.5
    8.46    4800.0
    8.52    4794.4
    8.73    4774.0
    8.94    4753.5
    9.34    4716.4
    9.52    4700.0
    9.75    4678.8
   10.19    4640.8
   10.41    4621.6
   10.64    4602.4
   10.67    4600.0
   11.11    4563.5
   11.35    4544.0
   11.60    4524.3
   11.91    4500.0
   12.11    4484.7
   12.65    4444.7
   12.71    4439.7
   13.27    4400.0
   13.57    4378.9
   13.68    4371.6
   14.21    4335.9
   14.76    4300.0
   15.39    4260.5
   16.05    4220.8
   16.23    4210.4
   16.40    4200.0
   17.29    4150.2
   18.24    4100.0
   18.45    4089.4
   18.62    4080.8
   18.79    4072.3
   19.54    4036.2
   19.92    4018.2
   20.32    4000.0
   21.16    3963.2
   22.05    3926.1
   22.38    3913.1
   22.71    3900.0
   23.38    3875.1
   24.05    3850.2
   24.80    3825.1
   25.54    3800.0
   25.83    3790.8
   25.96    3786.6
   26.10    3782.4
   26.79    3761.9
   27.49    3741.3
   28.27    3720.7
   29.04    3700.0
   29.91    3680.3
   30.78    3660.7
   31.65    3641.0
   32.20    3630.0
   32.99    3615.0
   33.84    3600.0
   34.65    3587.4
   35.46    3574.8
   36.27    3562.2
   37.05    3552.7
   37.84    3543.2
   38.62    3533.8
   39.41    3524.3
   40.37    3516.2
   41.32    3508.1
   42.28    3500.0
   43.27    3496.7
   44.26    3493.3
   45.26    3490.0
   46.25    3486.7
   47.24    3483.3
   48.23    3480.0
   49.22    3480.0
   50.21    3480.0
   51.20    3480.0
   52.20    3480.0
   53.19    3480.0
   54.18    3480.0
   55.17    3480.0
   56.16    3480.0
   57.16    3480.0
   58.15    3480.0
   59.14    3480.0
   60.13    3480.0
   61.12    3480.0
   62.12    3480.0
   63.11    3480.0
   64.10    3480.0
   65.09    3480.0
   66.09    3480.0
   67.08    3480.0
   68.07    3480.0
   69.06    3480.0
   70.05    3480.0
   71.05    3480.0
   72.04    3480.0
   73.03    3480.0
   74.02    3480.0
   75.01    3480.0
   76.01    3480.0
   77.00    3480.0
   77.99    3480.0
   78.98    3480.0
   79.97    3480.0
   80.97    3480.0
   81.96    3480.0
   82.95    3480.0
   83.94    3480.0
   84.93    3480.0
   85.93    3480.0
   86.92    3480.0
   87.91    3480.0
   88.90    3480.0
   89.89    3480.0
   90.89    3480.0
   91.88    3480.0
   92.87    3480.0
   93.86    3480.0
   94.86    3480.0
   95.85    3480.0
   96.84    3480.0
   97.83    3480.0
   98.82    3480.0
   99.82    3480.0
  100.81    3480.0
  101.80    3483.3
  102.79    3486.7
  103.78    3490.0
  104.77    3493.3
  105.76    3496.7
  106.75    3500.0
  107.71    3508.1
  108.67    3516.2
  109.63    3524.3
  110.41    3533.8
  111.20    3543.2
  111.98    3552.7
  112.77    3562.2
  113.58    3574.8
  114.39    3587.4
  115.20    3600.0
  116.04    3615.0
  116.84    3630.0
  117.39    3641.0
  118.26    3660.7
  119.12    3680.3
  119.99    3700.0
  120.77    3720.7
  121.55    3741.3
  122.24    3761.9
  122.94    3782.4
  123.07    3786.6
  123.21    3790.8
  123.50    3800.0
  124.24    3825.1
  124.98    3850.2
  125.65    3875.1
  126.33    3900.0
  126.66    3913.1
  126.98    3926.1
  127.88    3963.2
  128.72    4000.0
  129.11    4018.2
  129.50    4036.2
  130.24    4072.3
  130.42    4080.8
  130.59    4089.4
  130.79    4100.0
  131.74    4150.2
  132.63    4200.0
  132.81    4210.4
  132.99    4220.8
  133.65    4260.5
  134.28    4300.0
  134.83    4335.9
  135.36    4371.6
  135.47    4378.9
  135.77    4400.0
  136.32    4439.7
  136.39    4444.7
  136.93    4484.7
  137.13    4500.0
  137.44    4524.3
  137.69    4544.0
  137.93    4563.5
  138.37    4600.0
  138.40    4602.4
  138.63    4621.6
  138.85    4640.8
  139.28    4678.8
  139.52    4700.0
  139.70    4716.4
  140.09    4753.5
  140.31    4774.0
  140.52    4794.4
  140.58    4800.0
  140.92    4834.5
  141.11    4853.4
  141.29    4872.3
  141.56    4900.0
  141.65    4909.6
  141.84    4930.1
  142.03    4950.6
  142.40    4991.1
  142.47    5000.0
  142.73    5028.8
  143.04    5066.1
  143.26    5091.5
  143.33    5100.0
  143.36    5104.1
  143.41    5110.3
  143.44    5113.5
  143.45    5115.0
  143.46    5116.6
  143.71    5146.9
  143.94    5176.9
  144.12    5200.0
  144.28    5220.2
  144.43    5240.3
  144.65    5270.3
  144.87    5300.0
  145.04    5324.1
  145.12    5336.1
  145.21    5348.1
  145.30    5361.1
  145.39    5374.1
  145.48    5387.1
  145.56    5400.0
  145.63    5409.5
  145.66    5414.2
  145.69    5418.9
  145.72    5423.6
  145.75    5428.3
  145.78    5433.0
  145.80    5435.3
  145.81    5436.5
  145.81    5437.6
  145.88    5447.9
  145.93    5454.7
  146.07    5477.4
  146.22    5500.0
  146.28    5509.5
  146.34    5519.0
  146.45    5537.9
  146.49    5544.0
  146.53    5550.0
  146.60    5562.1
  146.72    5581.1
  146.83    5600.0
  146.96    5623.1
  147.12    5650.0
  147.25    5672.2
  147.31    5683.3
  147.37    5694.2
  147.39    5697.6
  147.40    5701.0
  147.49    5718.5
  147.58    5736.0
  147.61    5740.7
  147.63    5745.3
  147.69    5758.2
  147.73    5764.6
  147.76    5771.0
  147.84    5787.7
  147.92    5804.2
  147.96    5812.3
  148.00    5820.4
  148.00    5821.0
  148.06    5834.8
  148.13    5848.3
  148.16    5855.1
  148.19    5861.7
  148.23    5871.0
  148.32    5891.1
  148.38    5906.2
  148.45    5921.0
  148.47    5926.9
  148.50    5932.7
  148.51    5935.6
  148.58    5953.5
  148.62    5962.3
  148.65    5971.0
  148.71    5984.5
  148.77    6001.4
  148.83    6016.0
  148.91    6037.7
  148.99    6059.2
  149.00    6060.1
  149.00    6061.0
  149.04    6071.0
  149.07    6080.5
  149.12    6093.3
  149.16    6106.0
  149.18    6111.6
  149.20    6117.1
  149.24    6128.2
  149.25    6130.6
  149.26    6133.1
  149.29    6142.1
  149.31    6146.5
  149.32    6148.8
  149.32    6151.0
  149.38    6168.5
  149.44    6186.0
  149.49    6203.5
  149.55    6221.0
  149.60    6238.5
  149.63    6247.2
  149.66    6256.0
  149.68    6263.3
  149.69    6264.0
  149.73    6277.5
  149.77    6291.0
  149.80    6301.0
  149.83    6311.0
  149.85    6316.0
  149.86    6321.0
  149.88    6326.0
  149.90    6331.0
  149.91    6334.9
  149.92    6338.8
  149.93    6342.7
  149.94    6344.6
  149.94    6346.6
  149.94    6346.9
  149.96    6351.4
  149.96    6353.7
  149.97    6354.9
  149.97    6356.0
  149.98    6363.5
  149.99    6367.3
  150.00    6369.1
  150.00    6370.1
  150.00    6371.0
> PKIKP at  1148.07 seconds at   150.00 degrees for a    300.0 km deep source in the prem model with rayParam    1.569 s/deg.
    0.00    6071.0
    0.01    6061.0
    0.01    6060.1
    0.01    6059.2
    0.04    6037.7
    0.07    6016.0
    0.09    6001.4
    0.11    5984.5
    0.13    5971.0
    0.14    5962.3
    0.15    5953.5
    0.17    5935.6
    0.18    5932.7
    0.19    5926.9
    0.19    5921.0
    0.22    5906.2
    0.24    5891.1
    0.27    5871.0
    0.28    5861.7
    0.29    5855.1
    0.30    5848.3
    0.32    5834.8
    0.34    5821.0
    0.34    5820.4
    0.35    5812.3
    0.37    5804.2
    0.39    5787.7
    0.42    5771.0
    0.43    5764.6
    0.44    5758.2
    0.46    5745.3
    0.47    5740.7
    0.47    5736.0
    0.50    5718.5
    0.53    5701.0
    0.54    5697.6
    0.54    5694.2
    0.56    5683.3
    0.58    5672.2
    0.62    5650.0
    0.67    5623.1
    0.71    5600.0
    0.75    5581.1
    0.78    5562.1
    0.81    5550.0
    0.82    5544.0
    0.83    5537.9
    0.86    5519.0
    0.88    5509.5
    0.90    5500.0
    0.95    5477.4
    0.99    5454.7
    1.00    5447.9
    1.03    5437.6
    1.03    5436.5
    1.03    5435.3
    1.03    5433.0
    1.04    5428.3
    1.05    5423.6
    1.06    5418.9
    1.07    5414.2
    1.08    5409.5
    1.10    5400.0
    1.13    5387.1
    1.16    5374.1
    1.18    5361.1
    1.21    5348.1
    1.24    5336.1
    1.26    5324.1
    1.31    5300.0
    1.38    5270.3
    1.44    5240.3
    1.49    5220.2
    1.54    5200.0
    1.59    5176.9
    1.66    5146.9
    1.73    5116.6
    1.73    5115.0
    1.74    5113.5
    1.74    5110.3
    1.76    5104.1
    1.77    5100.0
    1.79    5091.5
    1.85    5066.1
    1.94    5028.8
    2.02    5000.0
    2.04    4991.1
    2.14    4950.6
    2.20    4930.1
    2.25    4909.6
    2.28    4900.0
    2.35    4872.3
    2.40    4853.4
    2.46    4834.5
    2.55    4800.0
    2.57    4794.4
    2.63    4774.0
    2.69    4753.5
    2.79    4716.4
    2.84    4700.0
    2.91    4678.8
    3.02    4640.8
    3.08    4621.6
    3.14    4602.4
    3.15    4600.0
    3.26    4563.5
    3.33    4544.0
    3.39    4524.3
    3.47    4500.0
    3.52    4484.7
    3.66    4444.7
    3.68    4439.7
    3.82    4400.0
    3.89    4378.9
    3.92    4371.6
    4.05    4335.9
    4.18    4300.0
    4.33    4260.5
    4.48    4220.8
    4.52    4210.4
    4.56    4200.0
    4.76    4150.2
    4.97    4100.0
    5.01    4089.4
    5.05    4080.8
    5.09    4072.3
    5.24    4036.2
    5.32    4018.2
    5.40    4000.0
    5.57    3963.2
    5.74    3926.1
    5.80    3913.1
    5.86    3900.0
    6.10    3850.2
    6.36    3800.0
    6.40    3790.8
    6.42    3786.6
    6.45    3782.4
    6.66    3741.3
    6.88    3700.0
    7.21    3641.0
    7.27    3630.0
    7.35    3615.0
    7.44    3600.0
    7.66    3562.2
    7.89    3524.3
    8.04    3500.0
    8.16    3480.0
    8.17    3479.0
    8.17    3478.0
    8.18    3476.0
    8.19    3472.0
    8.22    3463.9
    8.28    3447.7
    8.36    3424.0
    8.45    3400.0
    8.55    3374.0
    8.60    3360.9
    8.65    3347.7
    8.75    3324.0
    8.79    3312.0
    8.84    3300.0
    8.95    3274.0
    9.00    3261.0
    9.06    3247.8
    9.16    3224.0
    9.26    3200.0
    9.37    3175.3
    9.43    3162.9
    9.49    3150.4
    9.60    3125.3
    9.66    3112.7
    9.72    3100.0
    9.85    3074.0
    9.98    3047.8
   10.00    3044.5
   10.13    3018.6
   10.20    3004.8
   10.23    3000.0
   10.35    2976.3
   10.48    2952.5
   10.62    2926.3
   10.77    2900.0
   10.81    2893.0
   10.85    2886.0
   11.05    2852.5
   11.25    2818.7
   11.29    2811.5
   11.33    2805.8
   11.36    2800.0
   11.52    2775.4
   11.60    2763.0
   11.68    2750.6
   11.84    2725.4
   12.02    2700.0
   12.08    2690.9
   12.14    2681.9
   12.38    2647.2
   12.64    2612.3
   12.68    2605.8
   12.71    2602.9
   12.73    2600.0
   12.95    2571.0
   13.17    2541.8
   13.51    2500.0
   13.58    2492.1
   13.65    2483.5
   13.72    2474.8
   13.91    2452.8
   14.10    2430.8
   14.22    2416.6
   14.33    2404.9
   14.34    2403.7
   14.35    2402.5
   14.37    2400.0
   14.40    2397.0
   14.43    2393.9
   14.49    2387.8
   14.53    2382.9
   14.58    2378.1
   14.67    2368.4
   14.76    2358.6
   14.85    2348.8
   14.97    2336.7
   15.09    2324.5
   15.33    2300.0
   15.58    2275.2
   15.71    2262.7
   15.84    2250.2
   16.11    2225.2
   16.39    2200.0
   16.87    2158.0
   16.98    2149.0
   17.58    2100.0
   18.22    2050.2
   18.91    2000.0
   19.65    1949.1
   20.14    1917.2
   20.41    1900.0
   21.25    1849.2
   22.12    1800.0
   23.07    1750.2
   23.58    1725.1
   24.09    1700.0
   24.45    1683.3
   24.82    1666.6
   25.58    1633.4
   26.38    1600.0
   27.03    1575.1
   27.67    1550.2
   28.38    1525.1
   29.08    1500.0
   29.79    1476.9
   30.51    1453.7
   31.29    1430.4
   32.07    1407.1
   32.33    1400.0
   33.27    1375.1
   34.21    1350.1
   34.91    1333.4
   35.62    1316.7
   36.33    1300.0
   37.30    1280.4
   38.28    1260.8
   39.25    1241.1
   40.23    1221.5
   40.33    1219.9
   40.43    1218.4
   40.54    1216.8
   40.64    1215.3
   40.85    1212.1
   41.06    1209.0
   41.37    1204.5
   41.68    1200.0
   42.35    1190.7
   43.04    1181.3
   43.82    1171.2
   44.63    1161.0
   45.48    1150.9
   46.36    1140.7
   47.32    1130.5
   48.27    1120.4
   48.98    1113.6
   49.69    1106.8
   50.40    1100.0
   51.10    1094.0
   51.81    1088.0
   52.51    1082.0
   53.32    1076.0
   54.12    1070.0
   54.92    1064.0
   55.75    1058.7
   56.58    1053.3
   57.41    1048.0
   58.40    1042.7
   59.40    1037.4
   60.40    1032.0
   61.38    1028.0
   62.36    1024.0
   63.35    1020.0
   64.33    1016.0
   65.25    1014.0
   66.18    1012.0
   67.11    1010.0
   68.03    1008.0
   68.96    1006.0
   69.88    1004.0
   70.81    1002.0
   71.73    1000.0
   72.51     999.6
   73.29     999.2
   74.06     998.9
   74.84     998.5
   75.61     998.9
   76.39     999.2
   77.17     999.6
   77.94    1000.0
   78.87    1002.0
   79.79    1004.0
   80.72    1006.0
   81.64    1008.0
   82.57    1010.0
   83.50    1012.0
   84.42    1014.0
   85.35    1016.0
   86.33    1020.0
   87.31    1024.0
   88.29    1028.0
   89.28    1032.0
   90.27    1037.4
   91.27    1042.7
   92.27    1048.0
   93.10    1053.3
   93.93    1058.7
   94.75    1064.0
   95.56    1070.0
   96.36    1076.0
   97.16    1082.0
   97.87    1088.0
   98.57    1094.0
   99.28    1100.0
   99.99    1106.8
  100.70    1113.6
  101.41    1120.4
  102.36    1130.5
  103.31    1140.7
  104.20    1150.9
  105.05    1161.0
  105.86    1171.2
  106.64    1181.3
  107.33    1190.7
  107.99    1200.0
  108.31    1204.5
  108.62    1209.0
  108.83    1212.1
  109.04    1215.3
  109.14    1216.8
  109.24    1218.4
  109.35    1219.9
  109.45    1221.5
  110.42    1241.1
  111.40    1260.8
  112.37    1280.4
  113.35    1300.0
  114.06    1316.7
  114.76    1333.4
  115.47    1350.1
  116.41    1375.1
  117.35    1400.0
  117.60    1407.1
  118.39    1430.4
  119.17    1453.7
  119.88    1476.9
  120.59    1500.0
  121.30    1525.1
  122.01    1550.2
  122.65    1575.1
  123.29    1600.0
  124.10    1633.4
  124.86    1666.6
  125.23    1683.3
  125.58    1700.0
  126.09    1725.1
  126.61    1750.2
  127.55    1800.0
  128.42    1849.2
  129.26    1900.0
  129.54    1917.2
  130.03    1949.1
  130.77    2000.0
  131.46    2050.2
  132.10    2100.0
  132.70    2149.0
  132.80    2158.0
  133.28    2200.0
  133.56    2225.2
  133.83    2250.2
  133.96    2262.7
  134.09    2275.2
  134.35    2300.0
  134.59    2324.5
  134.71    2336.7
  134.82    2348.8
  134.92    2358.6
  135.01    2368.4
  135.10    2378.1
  135.15    2382.9
  135.19    2387.8
  135.25    2393.9
  135.27    2397.0
  135.30    2400.0
  135.32    2402.5
  135.33    2403.7
  135.35    2404.9
  135.45    2416.6
  135.58    2430.8
  135.77    2452.8
  135.96    2474.8
  136.03    2483.5
  136.10    2492.1
  136.16    2500.0
  136.50    2541.8
  136.73    2571.0
  136.95    2600.0
  136.97    2602.9
  136.99    2605.8
  137.04    2612.3
  137.29    2647.2
  137.54    2681.9
  137.60    2690.9
  137.66    2700.0
  137.83    2725.4
  138.00    2750.6
  138.08    2763.0
  138.16    2775.4
  138.31    2800.0
  138.35    2805.8
  138.38    2811.5
  138.43    2818.7
  138.63    2852.5
  138.83    2886.0
  138.87    2893.0
  138.91    2900.0
  139.05    2926.3
  139.20    2952.5
  139.33    2976.3
  139.45    3000.0
  139.48    3004.8
  139.55    3018.6
  139.68    3044.5
  139.70    3047.8
  139.82    3074.0
  139.95    3100.0
  140.01    3112.7
  140.07    3125.3
  140.19    3150.4
  140.24    3162.9
  140.30    3175.3
  140.41    3200.0
  140.52    3224.0
  140.62    3247.8
  140.67    3261.0
  140.73    3274.0
  140.83    3300.0
  140.88    3312.0
  140.93    3324.0
  141.02    3347.7
  141.08    3360.9
  141.13    3374.0
  141.22    3400.0
  141.31    3424.0
  141.40    3447.7
  141.46    3463.9
  141.49    3472.0
  141.50    3476.0
  141.51    3478.0
  141.51    3479.0
  141.51    3480.0
  141.64    3500.0
  141.79    3524.3
  142.01    3562.2
  142.24    3600.0
  142.32    3615.0
  142.41    3630.0
  142.47    3641.0
  142.80    3700.0
  143.02    3741.3
  143.23    3782.4
  143.25    3786.6
  143.27    3790.8
  143.32    3800.0
  143.57    3850.2
  143.81    3900.0
  143.87    3913.1
  143.93    3926.1
  144.11    3963.2
  144.27    4000.0
  144.35    4018.2
  144.43    4036.2
  144.59    4072.3
  144.62    4080.8
  144.66    4089.4
  144.71    4100.0
  144.91    4150.2
  145.11    4200.0
  145.15    4210.4
  145.20    4220.8
  145.35    4260.5
  145.50    4300.0
  145.63    4335.9
  145.76    4371.6
  145.79    4378.9
  145.86    4400.0
  146.00    4439.7
  146.02    4444.7
  146.15    4484.7
  146.20    4500.0
  146.28    4524.3
  146.35    4544.0
  146.41    4563.5
  146.53    4600.0
  146.53    4602.4
  146.59    4621.6
  146.65    4640.8
  146.77    4678.8
  146.83    4700.0
  146.88    4716.4
  146.99    4753.5
  147.05    4774.0
  147.11    4794.4
  147.12    4800.0
  147.22    4834.5
  147.27    4853.4
  147.32    4872.3
  147.40    4900.0
  147.42    4909.6
  147.48    4930.1
  147.53    4950.6
  147.64    4991.1
  147.66    5000.0
  147.73    5028.8
  147.82    5066.1
  147.89    5091.5
  147.91    5100.0
  147.92    5104.1
  147.93    5110.3
  147.94    5113.5
  147.94    5115.0
  147.95    5116.6
  148.02    5146.9
  148.09    5176.9
  148.14    5200.0
  148.19    5220.2
  148.23    5240.3
  148.30    5270.3
  148.36    5300.0
  148.41    5324.1
  148.44    5336.1
  148.47    5348.1
  148.49    5361.1
  148.52    5374.1
  148.55    5387.1
  148.57    5400.0
  148.59    5409.5
  148.60    5414.2
  148.61    5418.9
  148.62    5423.6
  148.63    5428.3
  148.64    5433.0
  148.65    5435.3
  148.65    5436.5
  148.65    5437.6
  148.67    5447.9
  148.68    5454.7
  148.73    5477.4
  148.77    5500.0
  148.79    5509.5
  148.81    5519.0
  148.85    5537.9
  148.86    5544.0
  148.87    5550.0
  148.89    5562.1
  148.93    5581.1
  148.96    5600.0
  149.01    5623.1
  149.05    5650.0
  149.09    5672.2
  149.11    5683.3
  149.13    5694.2
  149.14    5697.6
  149.14    5701.0
  149.17    5718.5
  149.20    5736.0
  149.21    5740.7
  149.22    5745.3
  149.24    5758.2
  149.25    5764.6
  149.26    5771.0
  149.28    5787.7
  149.31    5804.2
  149.32    5812.3
  149.33    5820.4
  149.34    5821.0
  149.36    5834.8
  149.38    5848.3
  149.39    5855.1
  149.40    5861.7
  149.41    5871.0
  149.44    5891.1
  149.46    5906.2
  149.48    5921.0
  149.49    5926.9
  149.50    5932.7
  149.50    5935.6
  149.53    5953.5
  149.54    5962.3
  149.55    5971.0
  149.57    5984.5
  149.59    6001.4
  149.61    6016.0
  149.63    6037.7
  149.66    6059.2
  149.66    6060.1
  149.66    6061.0
  149.68    6071.0
  149.69    6080.5
  149.70    6093.3
  149.72    6106.0
  149.72    6111.6
  149.73    6117.1
  149.74    6128.2
  149.75    6130.6
  149.75    6133.1
  149.76    6142.1
  149.77    6146.5
  149.77    6148.8
  149.77    6151.0
  149.79    6168.5
  149.81    6186.0
  149.83    6203.5
  149.85    6221.0
  149.87    6238.5
  149.88    6247.2
  149.89    6256.0
  149.89    6263.3
  149.89    6264.0
  149.91    6277.5
  149.92    6291.0
  149.93    6301.0
  149.94    6311.0
  149.95    6316.0
  149.95    6321.0
  149.96    6326.0
  149.96    6331.0
  149.97    6334.9
  149.97    6338.8
  149.98    6342.7
  149.98    6344.6
  149.98    6346.6
  149.98    6346.9
  149.99    6351.4
  149.99    6353.7
  149.99    6354.9
  149.99    6356.0
  149.99    6363.5
  150.00    6367.3
  150.00    6369.1
  150.00    6370.1
  150.00    6371.0
> PKP at  1153.45 seconds at   150.00 degrees for a    300.0 km deep source in the prem model with rayParam    2.321 s/deg.
    0.00    6071.0
    0.02    6061.0
    0.02    6060.1
    0.02    6059.2
    0.06    6037.7
    0.10    6016.0
    0.13    6001.4
    0.16    5984.5
    0.19    5971.0
    0.21    5962.3
    0.22    5953.5
    0.26    5935.6
    0.27    5932.7
    0.28    5926.9
    0.29    5921.0
    0.32    5906.2
    0.35    5891.1
    0.40    5871.0
    0.42    5861.7
    0.43    5855.1
    0.45    5848.3
    0.48    5834.8
    0.51    5821.0
    0.51    5820.4
    0.53    5812.3
    0.55    5804.2
    0.59    5787.7
    0.63    5771.0
    0.64    5764.6
    0.66    5758.2
    0.69    5745.3
    0.70    5740.7
    0.71    5736.0
    0.75    5718.5
    0.80    5701.0
    0.81    5697.6
    0.81    5694.2
    0.84    5683.3
    0.87    5672.2
    0.93    5650.0
    1.01    5623.1
    1.07    5600.0
    1.12    5581.1
    1.18    5562.1
    1.21    5550.0
    1.23    5544.0
    1.24    5537.9
    1.30    5519.0
    1.33    5509.5
    1.36    5500.0
    1.42    5477.4
    1.49    5454.7
    1.51    5447.9
    1.54    5437.6
    1.55    5436.5
    1.55    5435.3
    1.56    5433.0
    1.57    5428.3
    1.58    5423.6
    1.60    5418.9
    1.61    5414.2
    1.63    5409.5
    1.66    5400.0
    1.70    5387.1
    1.74    5374.1
    1.78    5361.1
    1.82    5348.1
    1.86    5336.1
    1.90    5324.1
    1.98    5300.0
    2.08    5270.3
    2.18    5240.3
    2.24    5220.2
    2.31    5200.0
    2.39    5176.9
    2.50    5146.9
    2.61    5116.6
    2.62    5115.0
    2.62    5113.5
    2.63    5110.3
    2.66    5104.1
    2.67    5100.0
    2.70    5091.5
    2.80    5066.1
    2.94    5028.8
    3.05    5000.0
    3.08    4991.1
    3.24    4950.6
    3.32    4930.1
    3.41    4909.6
    3.44    4900.0
    3.56    4872.3
    3.64    4853.4
    3.72    4834.5
    3.87    4800.0
    3.89    4794.4
    3.98    4774.0
    4.07    4753.5
    4.24    4716.4
    4.31    4700.0
    4.41    4678.8
    4.59    4640.8
    4.68    4621.6
    4.77    4602.4
    4.78    4600.0
    4.96    4563.5
    5.06    4544.0
    5.16    4524.3
    5.28    4500.0
    5.36    4484.7
    5.57    4444.7
    5.60    4439.7
    5.81    4400.0
    5.93    4378.9
    5.97    4371.6
    6.17    4335.9
    6.37    4300.0
    6.60    4260.5
    6.84    4220.8
    6.91    4210.4
    6.97    4200.0
    7.28    4150.2
    7.61    4100.0
    7.68    4089.4
    7.73    4080.8
    7.79    4072.3
    8.04    4036.2
    8.16    4018.2
    8.29    4000.0
    8.55    3963.2
    8.82    3926.1
    8.92    3913.1
    9.01    3900.0
    9.40    3850.2
    9.79    3800.0
    9.87    3790.8
    9.90    3786.6
    9.94    3782.4
   10.28    3741.3
   10.63    3700.0
   11.15    3641.0
   11.25    3630.0
   11.39    3615.0
   11.53    3600.0
   11.89    3562.2
   12.25    3524.3
   12.50    3500.0
   12.70    3480.0
   12.70    3479.0
   12.71    3478.0
   12.72    3476.0
   12.74    3472.0
   12.78    3463.9
   12.87    3447.7
   13.00    3424.0
   13.14    3400.0
   13.29    3374.0
   13.36    3360.9
   13.44    3347.7
   13.59    3324.0
   13.66    3312.0
   13.73    3300.0
   13.90    3274.0
   13.98    3261.0
   14.06    3247.8
   14.22    3224.0
   14.38    3200.0
   14.55    3175.3
   14.64    3162.9
   14.73    3150.4
   14.90    3125.3
   15.00    3112.7
   15.09    3100.0
   15.28    3074.0
   15.48    3047.8
   15.51    3044.5
   15.71    3018.6
   15.82    3004.8
   15.86    3000.0
   16.06    2976.3
   16.26    2952.5
   16.48    2926.3
   16.71    2900.0
   16.77    2893.0
   16.83    2886.0
   17.14    2852.5
   17.46    2818.7
   17.53    2811.5
   17.58    2805.8
   17.64    2800.0
   17.88    2775.4
   18.01    2763.0
   18.13    2750.6
   18.39    2725.4
   18.66    2700.0
   18.76    2690.9
   18.86    2681.9
   19.24    2647.2
   19.65    2612.3
   19.72    2605.8
   19.76    2602.9
   19.79    2600.0
   20.14    2571.0
   20.50    2541.8
   21.04    2500.0
   21.15    2492.1
   21.26    2483.5
   21.38    2474.8
   21.68    2452.8
   21.99    2430.8
   22.20    2416.6
   22.37    2404.9
   22.39    2403.7
   22.40    2402.5
   22.44    2400.0
   22.48    2397.0
   22.53    2393.9
   22.62    2387.8
   22.69    2382.9
   22.77    2378.1
   22.91    2368.4
   23.06    2358.6
   23.22    2348.8
   23.41    2336.7
   23.60    2324.5
   24.00    2300.0
   24.42    2275.2
   24.63    2262.7
   24.85    2250.2
   25.30    2225.2
   25.77    2200.0
   26.58    2158.0
   26.75    2149.0
   27.26    2124.5
   27.77    2100.0
   28.32    2075.1
   28.88    2050.2
   29.47    2025.1
   30.07    2000.0
   30.73    1974.6
   31.38    1949.1
   32.26    1917.2
   32.75    1900.0
   33.53    1874.6
   34.30    1849.2
   35.11    1824.6
   35.93    1800.0
   36.84    1775.1
   37.75    1750.2
   38.43    1733.5
   39.11    1716.7
   39.79    1700.0
   40.52    1683.3
   41.28    1666.6
   42.09    1650.0
   42.90    1633.4
   43.78    1616.7
   44.67    1600.0
   45.42    1587.5
   46.18    1575.1
   46.93    1562.6
   47.68    1550.2
   48.59    1537.6
   49.50    1525.1
   50.40    1512.5
   51.31    1500.0
   52.15    1490.7
   52.99    1481.5
   53.84    1472.2
   54.68    1463.0
   55.52    1453.7
   56.49    1445.9
   57.47    1438.2
   58.44    1430.4
   59.42    1422.7
   60.40    1414.9
   61.37    1407.1
   61.96    1403.6
   62.56    1400.0
   63.49    1397.4
   64.43    1394.7
   65.37    1392.1
   66.31    1389.5
   67.25    1386.9
   68.19    1384.2
   69.13    1381.6
   70.06    1379.0
   71.00    1376.3
   71.94    1373.7
   72.88    1371.1
   73.82    1368.4
   74.76    1365.8
   75.70    1368.4
   76.64    1371.1
   77.57    1373.7
   78.51    1376.3
   79.45    1379.0
   80.39    1381.6
   81.33    1384.2
   82.27    1386.9
   83.21    1389.5
   84.14    1392.1
   85.08    1394.7
   86.02    1397.4
   86.96    1400.0
   87.55    1403.6
   88.14    1407.1
   89.12    1414.9
   90.10    1422.7
   91.07    1430.4
   92.05    1438.2
   93.02    1445.9
   94.00    1453.7
   94.84    1463.0
   95.68    1472.2
   96.52    1481.5
   97.36    1490.7
   98.20    1500.0
   99.11    1512.5
  100.02    1525.1
  100.93    1537.6
  101.84    1550.2
  102.59    1562.6
  103.34    1575.1
  104.09    1587.5
  104.85    1600.0
  105.73    1616.7
  106.62    1633.4
  107.43    1650.0
  108.23    1666.6
  108.99    1683.3
  109.73    1700.0
  110.40    1716.7
  111.08    1733.5
  111.76    1750.2
  112.67    1775.1
  113.58    1800.0
  114.40    1824.6
  115.22    1849.2
  115.99    1874.6
  116.76    1900.0
  117.26    1917.2
  118.13    1949.1
  118.79    1974.6
  119.44    2000.0
  120.04    2025.1
  120.64    2050.2
  121.19    2075.1
  121.75    2100.0
  122.25    2124.5
  122.76    2149.0
  122.94    2158.0
  123.75    2200.0
  124.22    2225.2
  124.66    2250.2
  124.88    2262.7
  125.10    2275.2
  125.51    2300.0
  125.91    2324.5
  126.11    2336.7
  126.30    2348.8
  126.45    2358.6
  126.60    2368.4
  126.75    2378.1
  126.82    2382.9
  126.90    2387.8
  126.99    2393.9
  127.03    2397.0
  127.08    2400.0
  127.11    2402.5
  127.13    2403.7
  127.15    2404.9
  127.32    2416.6
  127.52    2430.8
  127.83    2452.8
  128.13    2474.8
  128.25    2483.5
  128.37    2492.1
  128.47    2500.0
  129.01    2541.8
  129.37    2571.0
  129.72    2600.0
  129.76    2602.9
  129.79    2605.8
  129.87    2612.3
  130.27    2647.2
  130.66    2681.9
  130.76    2690.9
  130.85    2700.0
  131.12    2725.4
  131.38    2750.6
  131.51    2763.0
  131.63    2775.4
  131.88    2800.0
  131.93    2805.8
  131.99    2811.5
  132.06    2818.7
  132.38    2852.5
  132.68    2886.0
  132.74    2893.0
  132.81    2900.0
  133.04    2926.3
  133.26    2952.5
  133.46    2976.3
  133.65    3000.0
  133.69    3004.8
  133.80    3018.6
  134.01    3044.5
  134.03    3047.8
  134.23    3074.0
  134.43    3100.0
  134.52    3112.7
  134.61    3125.3
  134.79    3150.4
  134.88    3162.9
  134.97    3175.3
  135.13    3200.0
  135.30    3224.0
  135.45    3247.8
  135.54    3261.0
  135.62    3274.0
  135.78    3300.0
  135.86    3312.0
  135.93    3324.0
  136.07    3347.7
  136.15    3360.9
  136.23    3374.0
  136.38    3400.0
  136.51    3424.0
  136.64    3447.7
  136.73    3463.9
  136.78    3472.0
  136.80    3476.0
  136.81    3478.0
  136.81    3479.0
  136.82    3480.0
  137.02    3500.0
  137.26    3524.3
  137.63    3562.2
  137.99    3600.0
  138.13    3615.0
  138.26    3630.0
  138.36    3641.0
  138.89    3700.0
  139.24    3741.3
  139.58    3782.4
  139.61    3786.6
  139.65    3790.8
  139.72    3800.0
  140.12    3850.2
  140.50    3900.0
  140.60    3913.1
  140.70    3926.1
  140.97    3963.2
  141.23    4000.0
  141.36    4018.2
  141.48    4036.2
  141.72    4072.3
  141.78    4080.8
  141.84    4089.4
  141.91    4100.0
  142.23    4150.2
  142.55    4200.0
  142.61    4210.4
  142.67    4220.8
  142.91    4260.5
  143.14    4300.0
  143.35    4335.9
  143.55    4371.6
  143.59    4378.9
  143.71    4400.0
  143.92    4439.7
  143.95    4444.7
  144.16    4484.7
  144.24    4500.0
  144.36    4524.3
  144.46    4544.0
  144.56    4563.5
  144.73    4600.0
  144.75    4602.4
  144.84    4621.6
  144.93    4640.8
  145.11    4678.8
  145.21    4700.0
  145.28    4716.4
  145.45    4753.5
  145.54    4774.0
  145.63    4794.4
  145.65    4800.0
  145.80    4834.5
  145.88    4853.4
  145.96    4872.3
  146.07    4900.0
  146.11    4909.6
  146.19    4930.1
  146.28    4950.6
  146.43    4991.1
  146.47    5000.0
  146.58    5028.8
  146.72    5066.1
  146.81    5091.5
  146.85    5100.0
  146.86    5104.1
  146.88    5110.3
  146.89    5113.5
  146.90    5115.0
  146.91    5116.6
  147.01    5146.9
  147.12    5176.9
  147.20    5200.0
  147.27    5220.2
  147.34    5240.3
  147.44    5270.3
  147.54    5300.0
  147.62    5324.1
  147.66    5336.1
  147.69    5348.1
  147.74    5361.1
  147.78    5374.1
  147.82    5387.1
  147.86    5400.0
  147.89    5409.5
  147.90    5414.2
  147.92    5418.9
  147.93    5423.6
  147.95    5428.3
  147.96    5433.0
  147.97    5435.3
  147.97    5436.5
  147.97    5437.6
  148.01    5447.9
  148.03    5454.7
  148.09    5477.4
  148.16    5500.0
  148.19    5509.5
  148.22    5519.0
  148.27    5537.9
  148.29    5544.0
  148.31    5550.0
  148.34    5562.1
  148.39    5581.1
  148.45    5600.0
  148.51    5623.1
  148.58    5650.0
  148.64    5672.2
  148.67    5683.3
  148.70    5694.2
  148.71    5697.6
  148.72    5701.0
  148.76    5718.5
  148.81    5736.0
  148.82    5740.7
  148.83    5745.3
  148.86    5758.2
  148.87    5764.6
  148.89    5771.0
  148.93    5787.7
  148.97    5804.2
  148.99    5812.3
  149.01    5820.4
  149.01    5821.0
  149.04    5834.8
  149.07    5848.3
  149.08    5855.1
  149.10    5861.7
  149.12    5871.0
  149.16    5891.1
  149.19    5906.2
  149.23    5921.0
  149.24    5926.9
  149.25    5932.7
  149.26    5935.6
  149.29    5953.5
  149.31    5962.3
  149.33    5971.0
  149.35    5984.5
  149.39    6001.4
  149.41    6016.0
  149.45    6037.7
  149.49    6059.2
  149.50    6060.1
  149.50    6061.0
  149.52    6071.0
  149.53    6080.5
  149.56    6093.3
  149.58    6106.0
  149.59    6111.6
  149.60    6117.1
  149.62    6128.2
  149.62    6130.6
  149.63    6133.1
  149.64    6142.1
  149.65    6146.5
  149.66    6148.8
  149.66    6151.0
  149.69    6168.5
  149.72    6186.0
  149.74    6203.5
  149.77    6221.0
  149.80    6238.5
  149.81    6247.2
  149.83    6256.0
  149.84    6263.3
  149.84    6264.0
  149.86    6277.5
  149.88    6291.0
  149.90    6301.0
  149.92    6311.0
  149.92    6316.0
  149.93    6321.0
  149.94    6326.0
  149.95    6331.0
  149.95    6334.9
  149.96    6338.8
  149.97    6342.7
  149.97    6344.6
  149.97    6346.6
  149.97    6346.9
  149.98    6351.4
  149.98    6353.7
  149.98    6354.9
  149.98    6356.0
  149.99    6363.5
  150.00    6367.3
  150.00    6369.1
  150.00    6370.1
  150.00    6371.0
> PKiKP at  1153.75 seconds at   150.00 degrees for a    300.0 km deep source in the prem model with rayParam    2.058 s/deg.
    0.00    6071.0
    0.02    6061.0
    0.02    6060.1
    0.02    6059.2
    0.05    6037.7
    0.09    6016.0
    0.11    6001.4
    0.14    5984.5
    0.17    5971.0
    0.18    5962.3
    0.20    5953.5
    0.23    5935.6
    0.24    5932.7
    0.25    5926.9
    0.26    5921.0
    0.28    5906.2
    0.31    5891.1
    0.35    5871.0
    0.37    5861.7
    0.38    5855.1
    0.40    5848.3
    0.42    5834.8
    0.45    5821.0
    0.45    5820.4
    0.47    5812.3
    0.48    5804.2
    0.52    5787.7
    0.55    5771.0
    0.57    5764.6
    0.58    5758.2
    0.61    5745.3
    0.62    5740.7
    0.63    5736.0
    0.66    5718.5
    0.70    5701.0
    0.71    5697.6
    0.72    5694.2
    0.74    5683.3
    0.77    5672.2
    0.82    5650.0
    0.89    5623.1
    0.94    5600.0
    0.99    5581.1
    1.04    5562.1
    1.07    5550.0
    1.08    5544.0
    1.10    5537.9
    1.15    5519.0
    1.17    5509.5
    1.19    5500.0
    1.25    5477.4
    1.31    5454.7
    1.33    5447.9
    1.36    5437.6
    1.36    5436.5
    1.36    5435.3
    1.37    5433.0
    1.38    5428.3
    1.40    5423.6
    1.41    5418.9
    1.42    5414.2
    1.43    5409.5
    1.46    5400.0
    1.50    5387.1
    1.53    5374.1
    1.57    5361.1
    1.60    5348.1
    1.64    5336.1
    1.67    5324.1
    1.74    5300.0
    1.83    5270.3
    1.92    5240.3
    1.98    5220.2
    2.04    5200.0
    2.11    5176.9
    2.20    5146.9
    2.30    5116.6
    2.30    5115.0
    2.31    5113.5
    2.32    5110.3
    2.34    5104.1
    2.35    5100.0
    2.38    5091.5
    2.46    5066.1
    2.58    5028.8
    2.68    5000.0
    2.71    4991.1
    2.85    4950.6
    2.92    4930.1
    2.99    4909.6
    3.03    4900.0
    3.13    4872.3
    3.20    4853.4
    3.27    4834.5
    3.40    4800.0
    3.42    4794.4
    3.49    4774.0
    3.57    4753.5
    3.72    4716.4
    3.78    4700.0
    3.87    4678.8
    4.02    4640.8
    4.10    4621.6
    4.19    4602.4
    4.20    4600.0
    4.35    4563.5
    4.44    4544.0
    4.52    4524.3
    4.63    4500.0
    4.70    4484.7
    4.88    4444.7
    4.91    4439.7
    5.09    4400.0
    5.19    4378.9
    5.23    4371.6
    5.40    4335.9
    5.58    4300.0
    5.78    4260.5
    5.99    4220.8
    6.05    4210.4
    6.10    4200.0
    6.37    4150.2
    6.65    4100.0
    6.71    4089.4
    6.76    4080.8
    6.81    4072.3
    7.02    4036.2
    7.13    4018.2
    7.24    4000.0
    7.47    3963.2
    7.70    3926.1
    7.79    3913.1
    7.87    3900.0
    8.20    3850.2
    8.54    3800.0
    8.61    3790.8
    8.63    3786.6
    8.66    3782.4
    8.96    3741.3
    9.26    3700.0
    9.71    3641.0
    9.79    3630.0
    9.91    3615.0
   10.03    3600.0
   10.34    3562.2
   10.65    3524.3
   10.86    3500.0
   11.03    3480.0
   11.03    3479.0
   11.04    3478.0
   11.05    3476.0
   11.07    3472.0
   11.10    3463.9
   11.18    3447.7
   11.30    3424.0
   11.42    3400.0
   11.55    3374.0
   11.61    3360.9
   11.68    3347.7
   11.81    3324.0
   11.87    3312.0
   11.94    3300.0
   12.08    3274.0
   12.15    3261.0
   12.23    3247.8
   12.36    3224.0
   12.50    3200.0
   12.65    3175.3
   12.73    3162.9
   12.80    3150.4
   12.96    3125.3
   13.04    3112.7
   13.12    3100.0
   13.29    3074.0
   13.47    3047.8
   13.49    3044.5
   13.67    3018.6
   13.76    3004.8
   13.80    3000.0
   13.96    2976.3
   14.14    2952.5
   14.33    2926.3
   14.53    2900.0
   14.59    2893.0
   14.64    2886.0
   14.90    2852.5
   15.18    2818.7
   15.24    2811.5
   15.29    2805.8
   15.34    2800.0
   15.55    2775.4
   15.65    2763.0
   15.76    2750.6
   15.99    2725.4
   16.22    2700.0
   16.31    2690.9
   16.39    2681.9
   16.72    2647.2
   17.07    2612.3
   17.14    2605.8
   17.17    2602.9
   17.20    2600.0
   17.50    2571.0
   17.81    2541.8
   18.27    2500.0
   18.36    2492.1
   18.46    2483.5
   18.56    2474.8
   18.82    2452.8
   19.08    2430.8
   19.26    2416.6
   19.40    2404.9
   19.42    2403.7
   19.43    2402.5
   19.46    2400.0
   19.50    2397.0
   19.54    2393.9
   19.62    2387.8
   19.68    2382.9
   19.74    2378.1
   19.87    2368.4
   20.00    2358.6
   20.13    2348.8
   20.29    2336.7
   20.45    2324.5
   20.79    2300.0
   21.15    2275.2
   21.33    2262.7
   21.51    2250.2
   21.89    2225.2
   22.28    2200.0
   22.96    2158.0
   23.11    2149.0
   23.96    2100.0
   24.88    2050.2
   25.87    2000.0
   26.41    1974.6
   26.94    1949.1
   27.66    1917.2
   28.06    1900.0
   28.68    1874.6
   29.30    1849.2
   29.95    1824.6
   30.60    1800.0
   31.32    1775.1
   32.03    1750.2
   32.82    1725.1
   33.61    1700.0
   34.16    1683.3
   34.74    1666.6
   35.34    1650.0
   35.94    1633.4
   36.59    1616.7
   37.23    1600.0
   37.94    1583.4
   38.64    1566.8
   39.35    1550.2
   40.15    1533.4
   40.95    1516.7
   41.75    1500.0
   42.59    1484.6
   43.44    1469.1
   44.28    1453.7
   45.26    1438.2
   46.23    1422.7
   47.21    1407.1
   47.71    1400.0
   48.67    1387.5
   49.64    1375.1
   50.61    1362.6
   51.58    1350.1
   52.58    1340.1
   53.58    1330.1
   54.58    1320.1
   55.58    1310.0
   56.58    1300.0
   57.53    1295.9
   58.49    1291.7
   59.45    1287.6
   60.41    1283.5
   61.36    1279.3
   62.32    1275.2
   63.28    1271.1
   64.24    1266.9
   65.20    1262.8
   66.15    1258.7
   67.11    1254.6
   68.07    1250.4
   69.03    1246.3
   69.98    1242.2
   70.94    1238.0
   71.90    1233.9
   72.86    1229.8
   73.82    1225.6
   74.77    1221.5
   75.73    1225.6
   76.69    1229.8
   77.65    1233.9
   78.60    1238.0
   79.56    1242.2
   80.52    1246.3
   81.48    1250.4
   82.44    1254.6
   83.39    1258.7
   84.35    1262.8
   85.31    1266.9
   86.27    1271.1
   87.22    1275.2
   88.18    1279.3
   89.14    1283.5
   90.10    1287.6
   91.06    1291.7
   92.01    1295.9
   92.97    1300.0
   93.97    1310.0
   94.97    1320.1
   95.97    1330.1
   96.97    1340.1
   97.97    1350.1
   98.94    1362.6
   99.91    1375.1
  100.87    1387.5
  101.84    1400.0
  102.33    1407.1
  103.31    1422.7
  104.29    1438.2
  105.27    1453.7
  106.11    1469.1
  106.95    1484.6
  107.80    1500.0
  108.60    1516.7
  109.40    1533.4
  110.20    1550.2
  110.90    1566.8
  111.61    1583.4
  112.31    1600.0
  112.96    1616.7
  113.61    1633.4
  114.21    1650.0
  114.81    1666.6
  115.38    1683.3
  115.94    1700.0
  116.73    1725.1
  117.51    1750.2
  118.23    1775.1
  118.94    1800.0
  119.59    1824.6
  120.25    1849.2
  120.87    1874.6
  121.49    1900.0
  121.89    1917.2
  122.60    1949.1
  123.14    1974.6
  123.68    2000.0
  124.67    2050.2
  125.59    2100.0
  126.43    2149.0
  126.58    2158.0
  127.27    2200.0
  127.66    2225.2
  128.03    2250.2
  128.22    2262.7
  128.40    2275.2
  128.75    2300.0
  129.09    2324.5
  129.26    2336.7
  129.42    2348.8
  129.55    2358.6
  129.68    2368.4
  129.80    2378.1
  129.87    2382.9
  129.93    2387.8
  130.01    2393.9
  130.04    2397.0
  130.08    2400.0
  130.11    2402.5
  130.13    2403.7
  130.14    2404.9
  130.29    2416.6
  130.46    2430.8
  130.73    2452.8
  130.99    2474.8
  131.09    2483.5
  131.19    2492.1
  131.28    2500.0
  131.74    2541.8
  132.05    2571.0
  132.35    2600.0
  132.38    2602.9
  132.41    2605.8
  132.48    2612.3
  132.82    2647.2
  133.16    2681.9
  133.24    2690.9
  133.32    2700.0
  133.56    2725.4
  133.78    2750.6
  133.89    2763.0
  134.00    2775.4
  134.21    2800.0
  134.26    2805.8
  134.31    2811.5
  134.37    2818.7
  134.64    2852.5
  134.91    2886.0
  134.96    2893.0
  135.02    2900.0
  135.22    2926.3
  135.41    2952.5
  135.58    2976.3
  135.75    3000.0
  135.78    3004.8
  135.88    3018.6
  136.06    3044.5
  136.08    3047.8
  136.26    3074.0
  136.42    3100.0
  136.51    3112.7
  136.59    3125.3
  136.74    3150.4
  136.82    3162.9
  136.89    3175.3
  137.04    3200.0
  137.18    3224.0
  137.32    3247.8
  137.39    3261.0
  137.47    3274.0
  137.61    3300.0
  137.67    3312.0
  137.74    3324.0
  137.86    3347.7
  137.93    3360.9
  138.00    3374.0
  138.13    3400.0
  138.25    3424.0
  138.36    3447.7
  138.44    3463.9
  138.48    3472.0
  138.50    3476.0
  138.51    3478.0
  138.51    3479.0
  138.52    3480.0
  138.69    3500.0
  138.89    3524.3
  139.21    3562.2
  139.51    3600.0
  139.63    3615.0
  139.75    3630.0
  139.84    3641.0
  140.29    3700.0
  140.59    3741.3
  140.88    3782.4
  140.91    3786.6
  140.94    3790.8
  141.01    3800.0
  141.35    3850.2
  141.68    3900.0
  141.76    3913.1
  141.84    3926.1
  142.08    3963.2
  142.30    4000.0
  142.41    4018.2
  142.52    4036.2
  142.73    4072.3
  142.78    4080.8
  142.83    4089.4
  142.89    4100.0
  143.17    4150.2
  143.45    4200.0
  143.50    4210.4
  143.56    4220.8
  143.76    4260.5
  143.96    4300.0
  144.14    4335.9
  144.32    4371.6
  144.35    4378.9
  144.45    4400.0
  144.64    4439.7
  144.66    4444.7
  144.85    4484.7
  144.92    4500.0
  145.02    4524.3
  145.11    4544.0
  145.19    4563.5
  145.35    4600.0
  145.36    4602.4
  145.44    4621.6
  145.52    4640.8
  145.68    4678.8
  145.76    4700.0
  145.83    4716.4
  145.97    4753.5
  146.05    4774.0
  146.13    4794.4
  146.15    4800.0
  146.28    4834.5
  146.35    4853.4
  146.42    4872.3
  146.52    4900.0
  146.55    4909.6
  146.63    4930.1
  146.70    4950.6
  146.84    4991.1
  146.87    5000.0
  146.96    5028.8
  147.09    5066.1
  147.17    5091.5
  147.20    5100.0
  147.21    5104.1
  147.23    5110.3
  147.24    5113.5
  147.24    5115.0
  147.25    5116.6
  147.35    5146.9
  147.44    5176.9
  147.51    5200.0
  147.57    5220.2
  147.63    5240.3
  147.72    5270.3
  147.81    5300.0
  147.87    5324.1
  147.91    5336.1
  147.94    5348.1
  147.98    5361.1
  148.02    5374.1
  148.05    5387.1
  148.09    5400.0
  148.11    5409.5
  148.12    5414.2
  148.14    5418.9
  148.15    5423.6
  148.16    5428.3
  148.18    5433.0
  148.18    5435.3
  148.18    5436.5
  148.19    5437.6
  148.22    5447.9
  148.23    5454.7
  148.29    5477.4
  148.35    5500.0
  148.38    5509.5
  148.40    5519.0
  148.45    5537.9
  148.46    5544.0
  148.48    5550.0
  148.51    5562.1
  148.56    5581.1
  148.60    5600.0
  148.66    5623.1
  148.72    5650.0
  148.78    5672.2
  148.80    5683.3
  148.83    5694.2
  148.84    5697.6
  148.84    5701.0
  148.88    5718.5
  148.92    5736.0
  148.93    5740.7
  148.94    5745.3
  148.97    5758.2
  148.98    5764.6
  148.99    5771.0
  149.03    5787.7
  149.06    5804.2
  149.08    5812.3
  149.10    5820.4
  149.10    5821.0
  149.12    5834.8
  149.15    5848.3
  149.16    5855.1
  149.18    5861.7
  149.20    5871.0
  149.23    5891.1
  149.26    5906.2
  149.29    5921.0
  149.30    5926.9
  149.31    5932.7
  149.32    5935.6
  149.35    5953.5
  149.36    5962.3
  149.38    5971.0
  149.40    5984.5
  149.43    6001.4
  149.46    6016.0
  149.49    6037.7
  149.53    6059.2
  149.53    6060.1
  149.53    6061.0
  149.55    6071.0
  149.56    6080.5
  149.58    6093.3
  149.60    6106.0
  149.61    6111.6
  149.62    6117.1
  149.64    6128.2
  149.64    6130.6
  149.65    6133.1
  149.66    6142.1
  149.67    6146.5
  149.67    6148.8
  149.67    6151.0
  149.70    6168.5
  149.72    6186.0
  149.75    6203.5
  149.77    6221.0
  149.80    6238.5
  149.81    6247.2
  149.82    6256.0
  149.83    6263.3
  149.83    6264.0
  149.85    6277.5
  149.87    6291.0
  149.89    6301.0
  149.90    6311.0
  149.91    6316.0
  149.91    6321.0
  149.92    6326.0
  149.93    6331.0
  149.93    6334.9
  149.94    6338.8
  149.94    6342.7
  149.95    6344.6
  149.95    6346.6
  149.95    6346.9
  149.95    6351.4
  149.96    6353.7
  149.96    6354.9
  149.96    6356.0
  149.97    6363.5
  149.97    6367.3
  149.97    6369.1
  149.97    6370.1
  149.97    6371.0
> PKP at  1160.18 seconds at   150.00 degrees for a    300.0 km deep source in the prem model with rayParam    4.110 s/deg.
    0.00    6071.0
    0.03    6061.0
    0.04    6060.1
    0.04    6059.2
    0.11    6037.7
    0.19    6016.0
    0.24    6001.4
    0.30    5984.5
    0.35    5971.0
    0.38    5962.3
    0.41    5953.5
    0.48    5935.6
    0.49    5932.7
    0.52    5926.9
    0.54    5921.0
    0.60    5906.2
    0.66    5891.1
    0.74    5871.0
    0.78    5861.7
    0.80    5855.1
    0.83    5848.3
    0.89    5834.8
    0.95    5821.0
    0.95    5820.4
    0.99    5812.3
    1.02    5804.2
    1.09    5787.7
    1.17    5771.0
    1.20    5764.6
    1.23    5758.2
    1.29    5745.3
    1.31    5740.7
    1.33    5736.0
    1.41    5718.5
    1.49    5701.0
    1.51    5697.6
    1.53    5694.2
    1.58    5683.3
    1.64    5672.2
    1.75    5650.0
    1.89    5623.1
    2.02    5600.0
    2.12    5581.1
    2.22    5562.1
    2.29    5550.0
    2.32    5544.0
    2.36    5537.9
    2.46    5519.0
    2.52    5509.5
    2.57    5500.0
    2.70    5477.4
    2.83    5454.7
    2.87    5447.9
    2.93    5437.6
    2.94    5436.5
    2.95    5435.3
    2.96    5433.0
    2.99    5428.3
    3.02    5423.6
    3.05    5418.9
    3.07    5414.2
    3.10    5409.5
    3.16    5400.0
    3.24    5387.1
    3.32    5374.1
    3.40    5361.1
    3.48    5348.1
    3.56    5336.1
    3.63    5324.1
    3.79    5300.0
    3.98    5270.3
    4.18    5240.3
    4.32    5220.2
    4.46    5200.0
    4.62    5176.9
    4.83    5146.9
    5.05    5116.6
    5.06    5115.0
    5.07    5113.5
    5.10    5110.3
    5.14    5104.1
    5.17    5100.0
    5.23    5091.5
    5.42    5066.1
    5.71    5028.8
    5.93    5000.0
    6.00    4991.1
    6.33    4950.6
    6.50    4930.1
    6.67    4909.6
    6.75    4900.0
    6.98    4872.3
    7.15    4853.4
    7.31    4834.5
    7.62    4800.0
    7.67    4794.4
    7.86    4774.0
    8.05    4753.5
    8.40    4716.4
    8.55    4700.0
    8.76    4678.8
    9.14    4640.8
    9.34    4621.6
    9.54    4602.4
    9.56    4600.0
    9.95    4563.5
   10.16    4544.0
   10.37    4524.3
   10.64    4500.0
   10.82    4484.7
   11.28    4444.7
   11.34    4439.7
   11.82    4400.0
   12.08    4378.9
   12.17    4371.6
   12.62    4335.9
   13.09    4300.0
   13.63    4260.5
   14.18    4220.8
   14.33    4210.4
   14.48    4200.0
   15.23    4150.2
   16.01    4100.0
   16.18    4089.4
   16.32    4080.8
   16.46    4072.3
   17.07    4036.2
   17.38    4018.2
   17.70    4000.0
   18.37    3963.2
   19.08    3926.1
   19.33    3913.1
   19.59    3900.0
   20.11    3875.1
   20.62    3850.2
   21.18    3825.1
   21.73    3800.0
   21.95    3790.8
   22.04    3786.6
   22.14    3782.4
   23.14    3741.3
   23.67    3720.7
   24.21    3700.0
   25.04    3670.5
   25.87    3641.0
   26.20    3630.0
   26.66    3615.0
   27.13    3600.0
   27.76    3581.1
   28.39    3562.2
   29.06    3543.2
   29.74    3524.3
   30.66    3500.0
   31.46    3480.0
   31.47    3479.0
   31.48    3478.0
   31.51    3476.0
   31.55    3472.0
   31.64    3463.9
   31.81    3447.7
   32.08    3424.0
   32.36    3400.0
   32.66    3374.0
   32.82    3360.9
   32.98    3347.7
   33.27    3324.0
   33.43    3312.0
   33.58    3300.0
   33.92    3274.0
   34.09    3261.0
   34.27    3247.8
   34.60    3224.0
   34.94    3200.0
   35.30    3175.3
   35.49    3162.9
   35.68    3150.4
   36.06    3125.3
   36.26    3112.7
   36.47    3100.0
   36.89    3074.0
   37.33    3047.8
   37.39    3044.5
   37.85    3018.6
   38.09    3004.8
   38.18    3000.0
   38.62    2976.3
   39.07    2952.5
   39.59    2926.3
   40.13    2900.0
   40.27    2893.0
   40.42    2886.0
   41.15    2852.5
   41.92    2818.7
   42.08    2811.5
   42.22    2805.8
   42.36    2800.0
   42.96    2775.4
   43.27    2763.0
   43.59    2750.6
   44.26    2725.4
   44.96    2700.0
   45.22    2690.9
   45.48    2681.9
   46.00    2664.6
   46.52    2647.2
   47.09    2629.8
   47.65    2612.3
   47.86    2605.8
   47.96    2602.9
   48.06    2600.0
   48.57    2585.5
   49.08    2571.0
   49.63    2556.4
   50.18    2541.8
   51.04    2520.9
   51.90    2500.0
   52.24    2492.1
   52.63    2483.5
   53.03    2474.8
   53.56    2463.8
   54.08    2452.8
   54.65    2441.8
   55.22    2430.8
   56.01    2416.6
   56.69    2404.9
   56.76    2403.7
   56.83    2402.5
   56.98    2400.0
   57.17    2397.0
   57.36    2393.9
   57.74    2387.8
   58.06    2382.9
   58.38    2378.1
   59.05    2368.4
   59.75    2358.6
   60.51    2348.8
   61.01    2342.7
   61.51    2336.7
   62.06    2330.6
   62.61    2324.5
   63.49    2316.3
   64.37    2308.2
   65.26    2300.0
   66.25    2293.8
   67.25    2287.6
   68.25    2281.4
   69.24    2275.2
   70.13    2273.2
   71.01    2271.2
   71.90    2269.2
   72.79    2267.3
   73.67    2265.3
   74.56    2263.3
   75.44    2265.3
   76.33    2267.3
   77.21    2269.2
   78.10    2271.2
   78.98    2273.2
   79.87    2275.2
   80.87    2281.4
   81.86    2287.6
   82.86    2293.8
   83.86    2300.0
   84.74    2308.2
   85.62    2316.3
   86.50    2324.5
   87.05    2330.6
   87.60    2336.7
   88.11    2342.7
   88.61    2348.8
   89.36    2358.6
   90.06    2368.4
   90.73    2378.1
   91.06    2382.9
   91.37    2387.8
   91.76    2393.9
   91.94    2397.0
   92.13    2400.0
   92.28    2402.5
   92.35    2403.7
   92.43    2404.9
   93.11    2416.6
   93.89    2430.8
   94.46    2441.8
   95.03    2452.8
   95.56    2463.8
   96.08    2474.8
   96.48    2483.5
   96.87    2492.1
   97.21    2500.0
   98.07    2520.9
   98.93    2541.8
   99.48    2556.4
  100.03    2571.0
  100.54    2585.5
  101.05    2600.0
  101.15    2602.9
  101.25    2605.8
  101.46    2612.3
  102.03    2629.8
  102.59    2647.2
  103.11    2664.6
  103.63    2681.9
  103.89    2690.9
  104.15    2700.0
  104.85    2725.4
  105.52    2750.6
  105.84    2763.0
  106.15    2775.4
  106.75    2800.0
  106.89    2805.8
  107.03    2811.5
  107.20    2818.7
  107.97    2852.5
  108.69    2886.0
  108.84    2893.0
  108.99    2900.0
  109.52    2926.3
  110.04    2952.5
  110.49    2976.3
  110.93    3000.0
  111.02    3004.8
  111.27    3018.6
  111.72    3044.5
  111.78    3047.8
  112.22    3074.0
  112.65    3100.0
  112.85    3112.7
  113.05    3125.3
  113.44    3150.4
  113.62    3162.9
  113.81    3175.3
  114.17    3200.0
  114.51    3224.0
  114.84    3247.8
  115.02    3261.0
  115.19    3274.0
  115.53    3300.0
  115.69    3312.0
  115.84    3324.0
  116.13    3347.7
  116.29    3360.9
  116.45    3374.0
  116.76    3400.0
  117.03    3424.0
  117.30    3447.7
  117.48    3463.9
  117.56    3472.0
  117.61    3476.0
  117.63    3478.0
  117.64    3479.0
  117.65    3480.0
  118.45    3500.0
  119.38    3524.3
  120.05    3543.2
  120.73    3562.2
  121.35    3581.1
  121.98    3600.0
  122.45    3615.0
  122.91    3630.0
  123.25    3641.0
  124.08    3670.5
  124.91    3700.0
  125.44    3720.7
  125.98    3741.3
  126.97    3782.4
  127.07    3786.6
  127.16    3790.8
  127.38    3800.0
  127.93    3825.1
  128.49    3850.2
  129.00    3875.1
  129.52    3900.0
  129.78    3913.1
  130.03    3926.1
  130.74    3963.2
  131.41    4000.0
  131.73    4018.2
  132.04    4036.2
  132.65    4072.3
  132.79    4080.8
  132.93    4089.4
  133.10    4100.0
  133.89    4150.2
  134.63    4200.0
  134.78    4210.4
  134.93    4220.8
  135.49    4260.5
  136.02    4300.0
  136.49    4335.9
  136.94    4371.6
  137.03    4378.9
  137.29    4400.0
  137.77    4439.7
  137.83    4444.7
  138.29    4484.7
  138.47    4500.0
  138.74    4524.3
  138.95    4544.0
  139.17    4563.5
  139.55    4600.0
  139.58    4602.4
  139.78    4621.6
  139.97    4640.8
  140.35    4678.8
  140.56    4700.0
  140.72    4716.4
  141.07    4753.5
  141.26    4774.0
  141.44    4794.4
  141.49    4800.0
  141.80    4834.5
  141.97    4853.4
  142.13    4872.3
  142.36    4900.0
  142.44    4909.6
  142.62    4930.1
  142.78    4950.6
  143.11    4991.1
  143.18    5000.0
  143.40    5028.8
  143.69    5066.1
  143.88    5091.5
  143.94    5100.0
  143.97    5104.1
  144.02    5110.3
  144.04    5113.5
  144.05    5115.0
  144.06    5116.6
  144.28    5146.9
  144.49    5176.9
  144.65    5200.0
  144.79    5220.2
  144.93    5240.3
  145.13    5270.3
  145.32    5300.0
  145.48    5324.1
  145.56    5336.1
  145.63    5348.1
  145.71    5361.1
  145.79    5374.1
  145.87    5387.1
  145.95    5400.0
  146.01    5409.5
  146.04    5414.2
  146.07    5418.9
  146.09    5423.6
  146.12    5428.3
  146.15    5433.0
  146.16    5435.3
  146.17    5436.5
  146.18    5437.6
  146.24    5447.9
  146.28    5454.7
  146.41    5477.4
  146.54    5500.0
  146.60    5509.5
  146.65    5519.0
  146.76    5537.9
  146.79    5544.0
  146.82    5550.0
  146.89    5562.1
  147.00    5581.1
  147.10    5600.0
  147.22    5623.1
  147.36    5650.0
  147.48    5672.2
  147.53    5683.3
  147.59    5694.2
  147.60    5697.6
  147.62    5701.0
  147.70    5718.5
  147.78    5736.0
  147.80    5740.7
  147.83    5745.3
  147.88    5758.2
  147.91    5764.6
  147.94    5771.0
  148.02    5787.7
  148.09    5804.2
  148.13    5812.3
  148.16    5820.4
  148.16    5821.0
  148.22    5834.8
  148.28    5848.3
  148.31    5855.1
  148.34    5861.7
  148.37    5871.0
  148.46    5891.1
  148.52    5906.2
  148.57    5921.0
  148.60    5926.9
  148.62    5932.7
  148.63    5935.6
  148.70    5953.5
  148.73    5962.3
  148.76    5971.0
  148.81    5984.5
  148.87    6001.4
  148.92    6016.0
  149.00    6037.7
  149.07    6059.2
  149.08    6060.1
  149.08    6061.0
  149.11    6071.0
  149.14    6080.5
  149.19    6093.3
  149.23    6106.0
  149.25    6111.6
  149.27    6117.1
  149.30    6128.2
  149.31    6130.6
  149.32    6133.1
  149.35    6142.1
  149.36    6146.5
  149.37    6148.8
  149.38    6151.0
  149.43    6168.5
  149.48    6186.0
  149.53    6203.5
  149.58    6221.0
  149.64    6238.5
  149.66    6247.2
  149.69    6256.0
  149.71    6263.3
  149.71    6264.0
  149.75    6277.5
  149.79    6291.0
  149.82    6301.0
  149.85    6311.0
  149.86    6316.0
  149.88    6321.0
  149.89    6326.0
  149.90    6331.0
  149.91    6334.9
  149.93    6338.8
  149.94    6342.7
  149.94    6344.6
  149.95    6346.6
  149.95    6346.9
  149.96    6351.4
  149.96    6353.7
  149.97    6354.9
  149.97    6356.0
  149.99    6363.5
  149.99    6367.3
  150.00    6369.1
  150.00    6370.1
  150.00    6371.0
END
gmt psxy -P -R -O -JP -A >> $PS <<END
END
